Date and Time:                Mon May 26 09:36:36.398 2025
Software Version:             4.30.30034.0
Temperature (C):              -35
Model:                        DU401_BVF
Data Type:                    Counts (Bg Corrected)
Acquisition Mode:             Accumulate
Trigger Mode:                 Internal
Exposure Time (secs):         0.1
Accumulate Cycle Time (secs): 0.1
Frequency (Hz):               10
Number of Accumulations:      15
Readout Mode:                 Full Vertical Binning
Horizontal binning:           1
Extended Dynamic Range:       off
Horizontally flipped:         false
Vertical Shift Speed (usecs): 16.25
Pixel Readout Time (usecs):   10
Serial Number:                24210
Pre-Amplifier Gain:           1.7x
Spurious Noise Filter Mode:   No Filter
Photon counted:               false
Data Averaging Filter Mode:   No Filter
DongWooDM500i:
Serial Number:                
Wavelength (nm):              567
Grating Groove Density (l/mm):1200



547.21796	793
547.2569	777
547.29584	793
547.33478	791
547.37372	783
547.41266	797
547.4516	784
547.49054	791
547.52948	794
547.56842	802
547.60736	791
547.64636	805
547.6853	817
547.72418	815
547.76312	816
547.80206	838
547.841	832
547.87994	833
547.91888	842
547.95782	833
547.99677	866
548.03571	852
548.07465	810
548.11359	858
548.15247	863
548.19141	875
548.23035	838
548.26929	860
548.30817	875
548.34711	873
548.38605	866
548.42499	875
548.46387	864
548.50281	876
548.54175	886
548.58063	895
548.61957	874
548.65851	902
548.69739	867
548.73633	881
548.77527	893
548.81415	893
548.85309	888
548.89197	903
548.93091	901
548.96979	916
549.00873	902
549.04761	898
549.08655	911
549.12543	897
549.16437	898
549.20325	905
549.24219	932
549.28107	920
549.31995	890
549.35889	895
549.39777	924
549.43665	923
549.47559	897
549.51447	911
549.55334	951
549.59229	934
549.63116	918
549.67004	923
549.70892	942
549.74786	952
549.78674	923
549.82562	954
549.8645	960
549.90338	954
549.94226	955
549.9812	967
550.02008	966
550.05896	970
550.09784	959
550.13672	984
550.1756	980
550.21448	982
550.25336	970
550.29224	969
550.33112	995
550.37	1007
550.40887	983
550.44775	997
550.48663	1001
550.52551	1015
550.56439	1001
550.60327	1004
550.64215	1011
550.68103	1025
550.71985	1023
550.75873	1005
550.79761	1025
550.83649	1034
550.87537	1026
550.91418	1030
550.95306	1048
550.99194	1034
551.03082	1024
551.06964	1019
551.10852	1037
551.1474	1022
551.18628	1025
551.2251	1045
551.26398	1077
551.3028	1046
551.34167	1051
551.38055	1073
551.41937	1067
551.45825	1055
551.49707	1034
551.53595	1054
551.57477	1050
551.61365	1082
551.65247	1040
551.69135	1042
551.73016	1077
551.76904	1059
551.80786	1061
551.84674	1059
551.88556	1054
551.92444	1072
551.96326	1054
552.00208	1077
552.04095	1064
552.07977	1086
552.11859	1074
552.15747	1079
552.19629	1084
552.23511	1081
552.27393	1068
552.31281	1088
552.35162	1080
552.39044	1066
552.42926	1106
552.46808	1098
552.50696	1105
552.54578	1097
552.58459	1095
552.62341	1106
552.66223	1122
552.70105	1118
552.73987	1104
552.77869	1127
552.8175	1119
552.85632	1104
552.89514	1122
552.93396	1143
552.97278	1147
553.0116	1138
553.05042	1126
553.08923	1151
553.12805	1151
553.16687	1188
553.20569	1156
553.24451	1153
553.28333	1186
553.32214	1194
553.3609	1172
553.39972	1176
553.43854	1202
553.47736	1189
553.51617	1168
553.55493	1197
553.59375	1225
553.63257	1225
553.67139	1201
553.71014	1218
553.74896	1213
553.78778	1230
553.82654	1208
553.86536	1226
553.90417	1242
553.94293	1253
553.98175	1218
554.02051	1249
554.05933	1262
554.09808	1252
554.1369	1249
554.17566	1241
554.21448	1237
554.25323	1241
554.29205	1244
554.33081	1242
554.36963	1249
554.40839	1239
554.4472	1226
554.48596	1256
554.52472	1236
554.56354	1275
554.60229	1229
554.64105	1249
554.67987	1250
554.71863	1282
554.75739	1261
554.7962	1250
554.83496	1261
554.87372	1232
554.91248	1237
554.95129	1261
554.99005	1261
555.02881	1273
555.06757	1259
555.10632	1246
555.14508	1275
555.18384	1264
555.22266	1257
555.26141	1256
555.30017	1272
555.33893	1271
555.37769	1254
555.41644	1261
555.4552	1279
555.49396	1304
555.53271	1264
555.57147	1271
555.61023	1294
555.64899	1279
555.68768	1298
555.72644	1247
555.7652	1279
555.80396	1297
555.84271	1279
555.88147	1304
555.92023	1273
555.95892	1304
555.99768	1272
556.03644	1298
556.0752	1306
556.11395	1302
556.15265	1301
556.19141	1317
556.23016	1323
556.26886	1316
556.30762	1314
556.34637	1330
556.38507	1343
556.42383	1323
556.46252	1326
556.50128	1346
556.54004	1333
556.57874	1321
556.61749	1340
556.65619	1320
556.69495	1343
556.73364	1327
556.7724	1335
556.8111	1323
556.84985	1358
556.88855	1349
556.92731	1315
556.966	1354
557.0047	1351
557.04346	1371
557.08215	1333
557.12085	1322
557.15961	1336
557.1983	1353
557.237	1342
557.27576	1332
557.31445	1330
557.35315	1362
557.39185	1346
557.43054	1331
557.4693	1330
557.508	1365
557.54669	1336
557.58539	1365
557.62408	1340
557.66278	1363
557.70148	1363
557.74023	1336
557.77893	1315
557.81763	1371
557.85632	1350
557.89502	1326
557.93372	1364
557.97241	1351
558.01111	1341
558.0498	1355
558.0885	1348
558.1272	1361
558.16583	1343
558.20453	1337
558.24323	1369
558.28192	1378
558.32062	1352
558.35931	1334
558.39801	1333
558.43665	1367
558.47534	1343
558.51404	1377
558.55273	1352
558.59137	1363
558.63007	1342
558.66876	1339
558.70746	1387
558.74609	1369
558.78479	1369
558.82349	1372
558.86212	1386
558.90082	1372
558.93945	1356
558.97815	1387
559.01678	1398
559.05548	1410
559.09418	1407
559.13281	1392
559.17151	1378
559.21014	1387
559.24884	1351
559.28748	1370
559.32611	1384
559.36481	1407
559.40344	1377
559.44214	1413
559.48077	1421
559.51941	1408
559.55811	1428
559.59674	1412
559.63538	1415
559.67407	1434
559.71271	1409
559.75134	1407
559.78998	1396
559.82867	1416
559.86731	1414
559.90594	1418
559.94458	1400
559.98322	1408
560.02185	1416
560.06055	1380
560.09918	1413
560.13782	1390
560.17645	1394
560.21509	1395
560.25372	1430
560.29236	1421
560.33099	1429
560.36963	1420
560.40826	1417
560.4469	1421
560.48553	1385
560.52417	1406
560.56281	1421
560.60144	1432
560.64008	1387
560.67865	1409
560.71729	1410
560.75592	1407
560.79456	1399
560.83319	1422
560.87183	1399
560.9104	1431
560.94904	1419
560.98767	1388
561.02631	1415
561.06488	1428
561.10352	1378
561.14215	1406
561.18073	1439
561.21936	1393
561.258	1412
561.29657	1414
561.33521	1408
561.37378	1415
561.41241	1377
561.45099	1422
561.48962	1429
561.52826	1413
561.56683	1390
561.60547	1412
561.64404	1409
561.68262	1422
561.72125	1430
561.75983	1416
561.79846	1439
561.83704	1418
561.87561	1406
561.91425	1438
561.95282	1434
561.99139	1426
562.03003	1424
562.0686	1411
562.10718	1418
562.14581	1437
562.18439	1401
562.22296	1420
562.26154	1436
562.30011	1437
562.33875	1427
562.37732	1441
562.41589	1453
562.45447	1430
562.49304	1414
562.53162	1435
562.57019	1434
562.60876	1454
562.64734	1428
562.68591	1413
562.72449	1457
562.76306	1427
562.80164	1458
562.84021	1438
562.87878	1429
562.91736	1451
562.95593	1426
562.99451	1426
563.03308	1410
563.07166	1436
563.11023	1434
563.14874	1436
563.18732	1459
563.22589	1451
563.26447	1425
563.30304	1417
563.34155	1450
563.38013	1419
563.4187	1415
563.45721	1446
563.49579	1442
563.53436	1411
563.57288	1410
563.61145	1426
563.65002	1413
563.68854	1415
563.72711	1416
563.76563	1416
563.8042	1427
563.84271	1420
563.88129	1408
563.9198	1411
563.95837	1421
563.99689	1434
564.03546	1422
564.07397	1406
564.11255	1415
564.15106	1412
564.18958	1416
564.22815	1426
564.26666	1419
564.30518	1403
564.34375	1415
564.38226	1428
564.42078	1423
564.45935	1424
564.49786	1394
564.53638	1410
564.57489	1402
564.61346	1415
564.65198	1393
564.69049	1414
564.729	1410
564.76752	1396
564.80603	1411
564.84454	1390
564.88306	1430
564.92157	1444
564.96014	1411
564.99866	1419
565.03717	1431
565.07568	1414
565.1142	1409
565.15271	1411
565.19116	1415
565.22968	1421
565.26819	1422
565.3067	1416
565.34521	1418
565.38373	1434
565.42224	1399
565.46075	1414
565.49921	1441
565.53772	1395
565.57623	1398
565.61475	1408
565.6532	1436
565.69171	1428
565.73022	1424
565.76874	1415
565.80719	1396
565.8457	1426
565.88422	1418
565.92267	1396
565.96118	1423
565.99963	1417
566.03815	1401
566.07666	1415
566.11511	1420
566.15363	1422
566.19208	1398
566.23059	1422
566.26904	1426
566.30756	1402
566.34601	1395
566.38446	1412
566.42297	1400
566.46143	1403
566.49994	1384
566.53839	1401
566.57684	1404
566.61536	1404
566.65381	1375
566.69226	1400
566.73071	1401
566.76923	1433
566.80768	1389
566.84613	1392
566.88458	1412
566.9231	1403
566.96155	1389
567	1382
567.03845	1398
567.0769	1376
567.11536	1374
567.15381	1364
567.19226	1385
567.23071	1379
567.26917	1373
567.30768	1354
567.34613	1371
567.38452	1388
567.42297	1381
567.46143	1363
567.49988	1382
567.53833	1372
567.57678	1389
567.61523	1354
567.65369	1380
567.69214	1381
567.73059	1366
567.76898	1356
567.80743	1372
567.84589	1372
567.88434	1354
567.92273	1351
567.96118	1371
567.99963	1373
568.03809	1393
568.07648	1366
568.11493	1362
568.15338	1376
568.19177	1366
568.23022	1345
568.26862	1374
568.30707	1361
568.34546	1373
568.38391	1370
568.42236	1382
568.46075	1386
568.49921	1353
568.5376	1371
568.57599	1382
568.61444	1363
568.65283	1348
568.69128	1342
568.72968	1377
568.76807	1380
568.80652	1357
568.84491	1363
568.8833	1366
568.92175	1339
568.96014	1358
568.99854	1379
569.03699	1373
569.07538	1364
569.11377	1365
569.15216	1370
569.19055	1354
569.22894	1376
569.2674	1370
569.30579	1367
569.34418	1369
569.38257	1333
569.42096	1339
569.45935	1324
569.49774	1351
569.53613	1372
569.57452	1333
569.61292	1319
569.65131	1333
569.6897	1341
569.72809	1330
569.76648	1324
569.80487	1310
569.84326	1363
569.88165	1323
569.91998	1320
569.95837	1328
569.99677	1336
570.03516	1321
570.07355	1299
570.11188	1327
570.15027	1317
570.18866	1316
570.22699	1326
570.26538	1326
570.30377	1313
570.3421	1286
570.38049	1281
570.41888	1325
570.45721	1303
570.49561	1298
570.534	1294
570.57233	1295
570.61072	1313
570.64905	1296
570.68744	1307
570.72577	1310
570.76416	1268
570.80249	1287
570.84082	1286
570.87921	1295
570.91754	1280
570.95593	1295
570.99426	1273
571.03259	1273
571.07098	1305
571.10931	1278
571.14764	1276
571.18597	1283
571.22437	1295
571.2627	1294
571.30103	1276
571.33936	1287
571.37775	1292
571.41608	1269
571.45441	1275
571.49274	1289
571.53107	1296
571.5694	1253
571.60773	1290
571.64606	1287
571.68439	1287
571.72272	1285
571.76105	1276
571.79938	1292
571.83771	1304
571.87604	1268
571.91437	1264
571.9527	1281
571.99103	1287
572.02936	1257
572.06769	1272
572.10602	1268
572.14429	1268
572.18262	1276
572.22095	1263
572.25928	1280
572.29761	1269
572.33588	1252
572.37421	1264
572.41254	1275
572.45081	1295
572.48914	1278
572.52747	1264
572.56573	1278
572.60406	1280
572.6424	1261
572.68066	1251
572.71899	1259
572.75726	1249
572.79559	1267
572.83386	1249
572.87219	1254
572.91046	1236
572.94879	1270
572.98706	1261
573.02539	1250
573.06366	1259
573.10193	1222
573.14026	1233
573.17853	1225
573.2168	1220
573.25513	1220
573.2934	1245
573.33167	1238
573.37	1233
573.40826	1201
573.44653	1207
573.4848	1240
573.52307	1233
573.5614	1226
573.59967	1221
573.63794	1207
573.67621	1189
573.71448	1200
573.75275	1217
573.79102	1212
573.82928	1204
573.86755	1202
573.90582	1192
573.94409	1214
573.98236	1177
574.02063	1204
574.0589	1203
574.09717	1200
574.13544	1202
574.17371	1171
574.21198	1189
574.25024	1213
574.28845	1176
574.32672	1167
574.36499	1159
574.40326	1172
574.44153	1172
574.47974	1170
574.51801	1192
574.55627	1172
574.59448	1155
574.63275	1163
574.67102	1140
574.70923	1163
574.7475	1177
574.78577	1176
574.82397	1139
574.86224	1152
574.90045	1165
574.93872	1148
574.97693	1152
575.0152	1155
575.05341	1166
575.09167	1147
575.12988	1148
575.16815	1156
575.20636	1166
575.24457	1173
575.28284	1143
575.32104	1141
575.35925	1166
575.39752	1140
575.43573	1163
575.47394	1161
575.51221	1153
575.55042	1154
575.58862	1147
575.62683	1164
575.66504	1136
575.70331	1121
575.74152	1150
575.77972	1142
575.81793	1135
575.85614	1123
575.89435	1134
575.93256	1132
575.97076	1136
576.00897	1129
576.04718	1112
576.08539	1158
576.1236	1117
576.1618	1130
576.20001	1106
576.23822	1122
576.27643	1115
576.31464	1115
576.35284	1137
576.39099	1117
576.4292	1104
576.46741	1089
576.50562	1121
576.54376	1113
576.58197	1129
576.62018	1098
576.65839	1068
576.69653	1093
576.73474	1092
576.77295	1073
576.8111	1091
576.8493	1091
576.88751	1069
576.92566	1073
576.96387	1085
577.00201	1066
577.04022	1080
577.07837	1082
577.11658	1073
577.15472	1063
577.19293	1079
577.23108	1063
577.26923	1074
577.30743	1076
577.34558	1058
577.38379	1054
577.42194	1057
577.46008	1082
577.49829	1078
577.53644	1069
577.57458	1052
577.61273	1058
577.65094	1065
577.68909	1047
577.72723	1048
577.76538	1077
577.80353	1065
577.84167	1034
577.87988	1030
577.91803	1046
577.95618	1057
577.99432	1015
578.03247	1051
578.07062	1042
578.10876	1037
578.14691	1058
578.18506	1033
578.22321	1020
578.26135	1052
578.2995	1039
578.33765	1009
578.37573	1016
578.41388	1014
578.45203	990
578.49017	1012
578.52832	1013
578.56647	1009
578.60455	990
578.6427	1010
578.68085	1003
578.71899	998
578.75708	972
578.79523	997
578.83337	993
578.87146	990
578.90961	977
578.94769	994
578.98584	1005
579.02399	1008
579.06207	980
579.10022	980
579.13831	981
579.17645	1007
579.21454	1002
579.25269	994
579.29077	1022
579.32886	1006
579.367	982
579.40509	965
579.44324	1007
579.48132	1018
579.51941	984
579.5575	999
579.59564	982
579.63373	999
579.67181	1009
579.7099	992
579.74805	989
579.78613	998
579.82422	974
579.8623	985
579.90039	995
579.93848	996
579.97662	963
580.01471	950
580.0528	983
580.09088	993
580.12897	943
580.16705	990
580.20514	962
580.24323	968
580.28131	944
580.3194	978
580.35742	973
580.39551	971
580.43359	952
580.47168	960
580.50977	949
580.54785	963
580.58594	926
580.62396	946
580.66205	952
580.70013	953
580.73822	938
580.77625	945
580.81433	957
580.85242	940
580.89044	925
580.92853	944
580.96655	953
581.00464	962
581.04272	938
581.08075	933
581.11884	938
581.15686	950
581.19495	933
581.23297	935
581.27106	942
581.30908	937
581.34717	916
581.38519	922
581.42322	952
581.4613	910
581.49933	909
581.53735	931
581.57544	938
581.61346	934
581.65149	918
581.68951	896
581.7276	903
581.76563	923
581.80365	898
581.84167	917
581.8797	959
581.91779	935
581.95581	899
581.99384	956
582.03186	905
582.06989	936
582.10791	910
582.14594	924
582.18396	921
582.22198	925
582.26001	900
582.29803	911
582.33606	900
582.37408	942
582.41211	905
582.45007	899
582.4881	921
582.52612	907
582.56415	901
582.60217	902
582.64014	925
582.67816	915
582.71619	888
582.75421	903
582.79218	923
582.8302	906
582.86823	874
582.90619	894
582.94421	905
582.98224	894
583.0202	885
583.05823	901
583.09619	906
583.13422	889
583.17218	863
583.21021	877
583.24817	906
583.28619	894
583.32416	867
583.36212	890
583.40015	873
583.43811	884
583.47614	861
583.5141	899
583.55206	905
583.59009	865
583.62805	863
583.66602	857
583.70398	857
583.742	871
583.77997	843
583.81793	867
583.8559	864
583.89386	864
583.93182	848
583.96979	875
584.00781	864
584.04578	868
584.08374	835
584.1217	882
584.15967	858
584.19763	879
584.2356	845
584.27356	858
584.31146	860
584.34943	835
584.38739	834
584.42535	875
584.46332	871
584.50128	864
584.53925	843
584.57715	850
584.61511	843
584.65308	837
584.69104	851
584.72894	850
584.76691	845
584.80487	849
584.84277	840
584.88074	843
584.9187	840
584.9566	839
584.99457	846
585.03247	829
585.07043	849
585.10834	837
585.1463	829
585.1842	827
585.22217	845
585.26007	847
585.29803	829
585.33594	838
585.3739	850
585.4118	837
585.44971	819
585.48767	807
585.52557	838
585.56348	850
585.60138	837
585.63934	810
585.67725	853
585.71515	845
585.75305	808
585.79102	837
585.82892	832
585.86682	832
585.90472	815
585.94263	821
585.98053	804
586.01843	815
586.05634	817
586.09424	817
586.13214	813
586.17004	835
586.20795	805
586.24585	819
586.28375	827
586.32166	820
586.35956	796
586.39746	808
586.4353	812
586.47321	810
586.51111	805
586.54901	814
